Wavelength,Intensity
365.73,0
365.91,11
366.09,11
366.28,9
366.46,12
366.64,12
366.83,7
367.01,14
367.19,7
367.38,9
367.56,8
367.74,10
367.93,10
368.11,14
368.29,13
368.47,12
368.66,15
368.84,11
369.02,12
369.21,17
369.39,13
369.57,7
369.76,14
369.94,11
370.12,9
370.3,6
370.49,12
370.67,14
370.85,10
371.04,15
371.22,12
371.4,7
371.58,11
371.77,4
371.95,12
372.13,5
372.31,5
372.5,16
372.68,12
372.86,14
373.04,16
373.23,19
373.41,14
373.59,12
373.77,18
373.96,12
374.14,13
374.32,18
374.5,12
374.68,13
374.87,15
375.05,20
375.23,8
375.41,5
375.6,11
375.78,13
375.96,9
376.14,11
376.32,10
376.5,13
376.69,15
376.87,11
377.05,13
377.23,12
377.41,9
377.6,6
377.78,3
377.96,11
378.14,9
378.32,12
378.5,16
378.69,19
378.87,10
379.05,11
379.23,11
379.41,11
379.59,9
379.77,15
379.96,12
380.14,7
380.32,6
380.5,16
380.68,8
380.86,10
381.04,11
381.22,8
381.41,10
381.59,11
381.77,7
381.95,9
382.13,12
382.31,12
382.49,15
382.67,10
382.85,13
383.03,11
383.22,10
383.4,12
383.58,21
383.76,11
383.94,12
384.12,6
384.3,9
384.48,14
384.66,15
384.84,9
385.02,11
385.2,14
385.38,15
385.56,15
385.74,7
385.92,7
386.11,11
386.29,18
386.47,9
386.65,7
386.83,18
387.01,10
387.19,8
387.37,7
387.55,10
387.73,11
387.91,9
388.09,14
388.27,8
388.45,14
388.63,7
388.81,12
388.99,8
389.17,11
389.35,12
389.53,10
389.71,7
389.89,16
390.07,8
390.25,10
390.43,12
390.6,12
390.78,6
390.96,19
391.14,9
391.32,13
391.5,17
391.68,13
391.86,15
392.04,15
392.22,10
392.4,10
392.58,10
392.76,7
392.94,10
393.12,9
393.3,22
393.47,13
393.65,9
393.83,16
394.01,10
394.19,11
394.37,8
394.55,7
394.73,13
394.91,10
395.09,12
395.26,12
395.44,14
395.62,9
395.8,10
395.98,10
396.16,8
396.34,16
396.52,14
396.69,12
396.87,14
397.05,9
397.23,11
397.41,11
397.59,11
397.76,13
397.94,12
398.12,11
398.3,9
398.48,10
398.66,9
398.83,9
399.01,13
399.19,8
399.37,14
399.55,13
399.72,11
399.9,10
400.08,9
400.26,15
400.44,9
400.61,10
400.79,11
400.97,19
401.15,9
401.33,21
401.5,13
401.68,20
401.86,13
402.04,14
402.21,11
402.39,11
402.57,10
402.75,6
402.92,13
403.1,12
403.28,18
403.46,15
403.63,19
403.81,10
403.99,9
404.17,16
404.34,12
404.52,2
404.7,18
404.87,15
405.05,8
405.23,14
405.41,14
405.58,11
405.76,7
405.94,15
406.11,13
406.29,14
406.47,10
406.64,12
406.82,8
407,16
407.17,12
407.35,14
407.53,13
407.7,14
407.88,7
408.06,7
408.23,17
408.41,7
408.59,11
408.76,7
408.94,6
409.12,11
409.29,10
409.47,5
409.64,10
409.82,11
410,22
410.17,10
410.35,15
410.52,12
410.7,7
410.88,11
411.05,13
411.23,16
411.4,12
411.58,13
411.76,15
411.93,12
412.11,10
412.28,9
412.46,14
412.63,11
412.81,10
412.99,9
413.16,6
413.34,12
413.51,9
413.69,17
413.86,9
414.04,10
414.21,17
414.39,15
414.56,3
414.74,9
414.91,3
415.09,16
415.27,17
415.44,13
415.62,8
415.79,11
415.97,13
416.14,12
416.32,12
416.49,10
416.67,12
416.84,8
417.01,13
417.19,13
417.36,13
417.54,23
417.71,11
417.89,12
418.06,20
418.24,11
418.41,19
418.59,13
418.76,17
418.94,6
419.11,14
419.28,12
419.46,15
419.63,5
419.81,13
419.98,10
420.16,6
420.33,4
420.5,16
420.68,10
420.85,12
421.03,11
421.2,10
421.37,14
421.55,9
421.72,16
421.89,13
422.07,12
422.24,11
422.42,18
422.59,13
422.76,10
422.94,15
423.11,15
423.28,9
423.46,7
423.63,4
423.8,13
423.98,4
424.15,10
424.32,6
424.5,14
424.67,20
424.84,15
425.02,8
425.19,9
425.36,15
425.54,15
425.71,8
425.88,14
426.06,16
426.23,12
426.4,7
426.57,5
426.75,12
426.92,18
427.09,11
427.27,11
427.44,15
427.61,7
427.78,13
427.96,12
428.13,15
428.3,7
428.47,8
428.65,10
428.82,8
428.99,7
429.16,10
429.34,11
429.51,8
429.68,10
429.85,8
430.02,15
430.2,13
430.37,9
430.54,10
430.71,13
430.88,13
431.06,16
431.23,17
431.4,14
431.57,15
431.74,15
431.91,4
432.09,10
432.26,12
432.43,13
432.6,12
432.77,9
432.94,12
433.12,9
433.29,14
433.46,19
433.63,14
433.8,15
433.97,10
434.14,13
434.32,15
434.49,14
434.66,4
434.83,12
435,16
435.17,20
435.34,30
435.51,45
435.68,24
435.85,19
436.03,14
436.2,12
436.37,14
436.54,9
436.71,17
436.88,7
437.05,12
437.22,12
437.39,11
437.56,15
437.73,7
437.9,18
438.07,10
438.24,19
438.41,13
438.58,14
438.75,16
438.92,7
439.09,16
439.26,11
439.43,12
439.6,7
439.77,13
439.94,6
440.11,8
440.28,10
440.45,9
440.62,9
440.79,12
440.96,7
441.13,8
441.3,9
441.47,10
441.64,13
441.81,13
441.98,10
442.15,14
442.32,16
442.49,23
442.66,11
442.83,10
443,15
443.17,14
443.33,13
443.5,12
443.67,15
443.84,14
444.01,14
444.18,9
444.35,6
444.52,6
444.69,6
444.86,9
445.02,15
445.19,8
445.36,9
445.53,8
445.7,14
445.87,13
446.04,12
446.2,13
446.37,13
446.54,10
446.71,11
446.88,10
447.05,12
447.21,8
447.38,19
447.55,15
447.72,9
447.89,7
448.06,6
448.22,9
448.39,12
448.56,14
448.73,6
448.9,10
449.06,8
449.23,4
449.4,12
449.57,13
449.73,8
449.9,7
450.07,13
450.24,12
450.4,9
450.57,14
450.74,12
450.91,10
451.07,13
451.24,10
451.41,11
451.58,10
451.74,7
451.91,13
452.08,15
452.24,11
452.41,13
452.58,11
452.75,17
452.91,12
453.08,6
453.25,12
453.41,14
453.58,10
453.75,11
453.91,13
454.08,9
454.25,15
454.41,9
454.58,18
454.75,13
454.91,8
455.08,11
455.24,15
455.41,13
455.58,20
455.74,11
455.91,17
456.08,8
456.24,16
456.41,15
456.57,12
456.74,14
456.91,8
457.07,16
457.24,10
457.4,8
457.57,7
457.74,6
457.9,15
458.07,11
458.23,14
458.4,13
458.56,16
458.73,16
458.89,9
459.06,14
459.22,16
459.39,19
459.56,11
459.72,5
459.89,13
460.05,11
460.22,6
460.38,14
460.55,13
460.71,12
460.88,8
461.04,11
461.21,15
461.37,7
461.54,15
461.7,11
461.86,15
462.03,12
462.19,9
462.36,16
462.52,9
462.69,16
462.85,13
463.02,16
463.18,13
463.35,13
463.51,11
463.67,10
463.84,13
464,10
464.17,9
464.33,16
464.49,10
464.66,9
464.82,14
464.99,6
465.15,9
465.31,14
465.48,11
465.64,5
465.8,8
465.97,11
466.13,9
466.3,13
466.46,15
466.62,9
466.79,12
466.95,6
467.11,18
467.28,12
467.44,14
467.6,7
467.77,14
467.93,9
468.09,13
468.25,13
468.42,11
468.58,10
468.74,17
468.91,7
469.07,9
469.23,8
469.39,10
469.56,11
469.72,5
469.88,13
470.04,11
470.21,8
470.37,12
470.53,11
470.69,9
470.86,9
471.02,12
471.18,10
471.34,19
471.51,7
471.67,9
471.83,14
471.99,9
472.15,12
472.32,14
472.48,13
472.64,15
472.8,12
472.96,13
473.12,11
473.29,4
473.45,11
473.61,10
473.77,12
473.93,10
474.09,16
474.26,8
474.42,10
474.58,9
474.74,12
474.9,20
475.06,16
475.22,17
475.38,20
475.55,16
475.71,9
475.87,9
476.03,15
476.19,4
476.35,9
476.51,9
476.67,10
476.83,7
476.99,7
477.15,13
477.31,14
477.47,11
477.64,12
477.8,4
477.96,13
478.12,14
478.28,10
478.44,9
478.6,12
478.76,12
478.92,10
479.08,15
479.24,10
479.4,11
479.56,15
479.72,12
479.88,15
480.04,14
480.2,6
480.36,17
480.52,11
480.68,16
480.84,11
480.99,14
481.15,7
481.31,15
481.47,12
481.63,9
481.79,13
481.95,16
482.11,7
482.27,10
482.43,17
482.59,13
482.75,17
482.91,13
483.06,13
483.22,9
483.38,13
483.54,17
483.7,16
483.86,9
484.02,10
484.18,17
484.33,10
484.49,19
484.65,38
484.81,19
484.97,16
485.13,16
485.28,12
485.44,11
485.6,11
485.76,15
485.92,14
486.08,13
486.23,6
486.39,15
486.55,12
486.71,19
486.86,21
487.02,20
487.18,18
487.34,13
487.5,20
487.65,17
487.81,14
487.97,18
488.13,12
488.28,17
488.44,10
488.6,10
488.76,15
488.91,10
489.07,15
489.23,13
489.38,19
489.54,19
489.7,13
489.85,9
490.01,11
490.17,16
490.33,9
490.48,15
490.64,13
490.8,10
490.95,17
491.11,17
491.27,18
491.42,10
491.58,19
491.73,11
491.89,14
492.05,20
492.2,10
492.36,13
492.52,11
492.67,14
492.83,10
492.98,12
493.14,10
493.3,12
493.45,14
493.61,12
493.76,9
493.92,19
494.07,12
494.23,10
494.39,14
494.54,8
494.7,14
494.85,11
495.01,15
495.16,9
495.32,17
495.47,16
495.63,11
495.78,18
495.94,15
496.09,16
496.25,10
496.4,14
496.56,12
496.71,13
496.87,12
497.02,9
497.18,14
497.33,14
497.49,12
497.64,13
497.8,10
497.95,10
498.1,12
498.26,11
498.41,10
498.57,11
498.72,8
498.88,12
499.03,10
499.18,18
499.34,12
499.49,9
499.65,10
499.8,15
499.95,12
500.11,13
500.26,11
500.41,12
500.57,13
500.72,7
500.88,9
501.03,8
501.18,8
501.34,15
501.49,11
501.64,6
501.8,13
501.95,10
502.1,10
502.26,9
502.41,17
502.56,12
502.71,12
502.87,10
503.02,11
503.17,3
503.33,10
503.48,12
503.63,17
503.78,8
503.94,7
504.09,11
504.24,10
504.39,15
504.55,8
504.7,20
504.85,10
505,12
505.15,11
505.31,14
505.46,12
505.61,10
505.76,5
505.91,13
506.07,15
506.22,16
506.37,13
506.52,12
506.67,10
506.82,12
506.98,14
507.13,5
507.28,7
507.43,14
507.58,12
507.73,11
507.88,12
508.04,15
508.19,11
508.34,11
508.49,13
508.64,10
508.79,10
508.94,13
509.09,10
509.24,14
509.39,1
509.55,11
509.7,9
509.85,6
510,17
510.15,8
510.3,10
510.45,12
510.6,10
510.75,9
510.9,7
511.05,10
511.2,16
511.35,12
511.5,19
511.65,13
511.8,12
511.95,12
512.1,13
512.25,8
512.4,12
512.55,9
512.7,9
512.85,14
513,6
513.15,19
513.3,14
513.45,15
513.59,8
513.74,3
513.89,6
514.04,12
514.19,14
514.34,12
514.49,10
514.64,16
514.79,6
514.94,11
515.08,5
515.23,14
515.38,10
515.53,13
515.68,6
515.83,9
515.98,10
516.12,13
516.27,9
516.42,10
516.57,10
516.72,8
516.87,7
517.01,7
517.16,10
517.31,11
517.46,11
517.61,16
517.75,7
517.9,9
518.05,7
518.2,14
518.35,9
518.49,13
518.64,12
518.79,14
518.94,9
519.08,7
519.23,8
519.38,18
519.52,11
519.67,9
519.82,17
519.97,12
520.11,7
520.26,14
520.41,9
520.55,9
520.7,9
520.85,8
520.99,7
521.14,3
521.29,18
521.43,5
521.58,14
521.73,15
521.87,12
522.02,13
522.17,15
522.31,12
522.46,11
522.6,13
522.75,10
522.9,11
523.04,11
523.19,9
523.33,8
523.48,18
523.63,13
523.77,16
523.92,13
524.06,9
524.21,9
524.35,12
524.5,13
524.64,7
524.79,11
524.94,12
525.08,15
525.23,18
525.37,11
525.52,7
525.66,5
525.81,10
525.95,16
526.1,11
526.24,16
526.39,7
526.53,9
526.67,11
526.82,11
526.96,8
527.11,12
527.25,16
527.4,9
527.54,14
527.69,9
527.83,16
527.97,12
528.12,10
528.26,4
528.41,7
528.55,10
528.69,7
528.84,10
528.98,13
529.12,17
529.27,15
529.41,7
529.56,6
529.7,4
529.84,14
529.99,12
530.13,21
530.27,11
530.42,11
530.56,4
530.7,9
530.85,11
530.99,11
531.13,11
531.27,5
531.42,11
531.56,17
531.7,6
531.84,8
531.99,8
532.13,12
532.27,22
532.41,10
532.56,8
532.7,16
532.84,13
532.98,13
533.13,15
533.27,9
533.41,15
533.55,18
533.69,11
533.84,12
533.98,17
534.12,13
534.26,16
534.4,12
534.55,16
534.69,14
534.83,13
534.97,16
535.11,15
535.25,19
535.39,20
535.53,16
535.68,20
535.82,14
535.96,18
536.1,23
536.24,22
536.38,21
536.52,27
536.66,39
536.8,34
536.94,41
537.08,39
537.23,40
537.37,40
537.51,34
537.65,31
537.79,41
537.93,44
538.07,39
538.21,40
538.35,40
538.49,33
538.63,42
538.77,38
538.91,37
539.05,37
539.19,31
539.33,33
539.47,34
539.61,31
539.75,35
539.89,31
540.02,34
540.16,35
540.3,49
540.44,50
540.58,41
540.72,36
540.86,37
541,24
541.14,21
541.28,22
541.42,12
541.55,15
541.69,21
541.83,21
541.97,18
542.11,16
542.25,16
542.39,20
542.52,21
542.66,13
542.8,17
542.94,22
543.08,15
543.22,24
543.35,16
543.49,20
543.63,21
543.77,19
543.91,22
544.04,14
544.18,19
544.32,24
544.46,21
544.59,16
544.73,12
544.87,15
545.01,17
545.14,18
545.28,23
545.42,12
545.56,13
545.69,17
545.83,21
545.97,11
546.1,13
546.24,14
546.38,16
546.51,15
546.65,19
546.79,17
546.92,17
547.06,12
547.2,13
547.33,15
547.47,13
547.61,14
547.74,12
547.88,11
548.01,11
548.15,13
548.29,15
548.42,13
548.56,10
548.69,14
548.83,13
548.97,15
549.1,17
549.24,17
549.37,16
549.51,7
549.64,15
549.78,20
549.91,6
550.05,10
550.18,12
550.32,12
550.45,11
550.59,6
550.72,7
550.86,9
550.99,13
551.13,11
551.26,5
551.4,11
551.53,12
551.67,12
551.8,17
551.94,12
552.07,13
552.2,9
552.34,15
552.47,17
552.61,11
552.74,10
552.88,11
553.01,8
553.14,9
553.28,16
553.41,9
553.54,11
553.68,12
553.81,15
553.94,15
554.08,13
554.21,7
554.35,11
554.48,6
554.61,7
554.74,10
554.88,10
555.01,1
555.14,4
555.28,8
555.41,8
555.54,12
555.68,10
555.81,7
555.94,5
556.07,10
556.21,17
556.34,13
556.47,12
556.6,7
556.73,4
556.87,20
557,9
557.13,14
557.26,12
557.4,14
557.53,15
557.66,14
557.79,10
557.92,12
558.05,11
558.19,10
558.32,11
558.45,13
558.58,6
558.71,16
558.84,8
558.97,10
559.11,6
559.24,11
559.37,4
559.5,15
559.63,11
559.76,4
559.89,14
560.02,8
560.15,7
560.28,14
560.41,10
560.54,17
560.67,16
560.81,15
560.94,11
561.07,13
561.2,13
561.33,15
561.46,12
561.59,12
561.72,11
561.85,11
561.98,10
562.11,14
562.24,15
562.36,11
562.49,13
562.62,10
562.75,11
562.88,11
563.01,12
563.14,6
563.27,10
563.4,9
563.53,12
563.66,17
563.79,8
563.92,18
564.04,17
564.17,5
564.3,5
564.43,11
564.56,10
564.69,14
564.82,8
564.94,9
565.07,8
565.2,14
565.33,12
565.46,14
565.59,13
565.71,10
565.84,15
565.97,8
566.1,12
566.23,17
566.35,11
566.48,14
566.61,12
566.74,12
566.86,13
566.99,8
567.12,10
567.25,15
567.37,16
567.5,21
567.63,13
567.75,12
567.88,7
568.01,14
568.14,13
568.26,12
568.39,11
568.52,15
568.64,9
568.77,12
568.9,18
569.02,19
569.15,16
569.27,15
569.4,11
569.53,16
569.65,14
569.78,14
569.9,11
570.03,19
570.16,16
570.28,16
570.41,17
570.53,12
570.66,10
570.78,16
570.91,19
571.04,14
571.16,15
571.29,10
571.41,17
571.54,18
571.66,16
571.79,19
571.91,13
572.04,15
572.16,13
572.29,16
572.41,19
572.54,11
572.66,17
572.79,17
572.91,20
573.03,15
573.16,16
573.28,17
573.41,14
573.53,20
573.65,23
573.78,18
573.9,17
574.03,10
574.15,13
574.27,24
574.4,18
574.52,13
574.65,12
574.77,14
574.89,10
575.02,18
575.14,16
575.26,21
575.39,16
575.51,17
575.63,14
575.75,19
575.88,19
576,16
576.12,16
576.25,15
576.37,18
576.49,21
576.61,12
576.74,11
576.86,21
576.98,14
577.1,15
577.23,20
577.35,16
577.47,13
577.59,15
577.71,19
577.84,15
577.96,22
578.08,27
578.2,14
578.32,16
578.44,18
578.57,11
578.69,11
578.81,2
578.93,13
579.05,17
579.17,13
579.29,11
579.41,12
579.54,14
579.66,13
579.78,17
579.9,11
580.02,18
580.14,12
580.26,18
580.38,12
580.5,8
580.62,18
580.74,12
580.86,18
580.98,9
581.1,21
581.22,14
581.34,13
581.46,12
581.58,16
581.7,12
581.82,8
581.94,11
582.06,12
582.18,14
582.3,19
582.42,16
582.54,15
582.66,5
582.78,9
582.9,10
583.02,12
583.13,7
583.25,17
583.37,12
583.49,19
583.61,13
583.73,13
583.85,13
583.97,11
584.08,12
584.2,19
584.32,8
584.44,15
584.56,15
584.68,11
584.79,14
584.91,18
585.03,13
585.15,12
585.27,9
585.38,12
585.5,15
585.62,19
585.74,13
585.85,13
585.97,13
586.09,13
586.21,14
586.32,14
586.44,11
586.56,15
586.67,12
586.79,11
586.91,8
587.02,12
587.14,14
587.26,14
587.37,7
587.49,13
587.61,11
587.72,14
587.84,12
587.96,7
588.07,15
588.19,11
588.31,14
588.42,10
588.54,17
588.65,13
588.77,9
588.88,10
589,10
589.12,13
589.23,17
589.35,11
589.46,9
589.58,10
589.69,14
589.81,16
589.92,10
590.04,13
590.15,9
590.27,18
590.38,15
590.5,10
590.61,17
590.73,14
590.84,10
590.96,14
591.07,9
591.19,13
591.3,15
591.41,13
591.53,9
591.64,14
591.76,12
591.87,11
591.98,11
592.1,8
592.21,17
592.33,10
592.44,10
592.55,14
592.67,7
592.78,14
592.89,18
593.01,17
593.12,12
593.23,14
593.35,15
593.46,16
593.57,18
593.69,13
593.8,17
593.91,17
594.02,12
594.14,19
594.25,15
594.36,27
594.47,23
594.59,23
594.7,30
594.81,38
594.92,51
595.03,58
595.15,75
595.26,64
595.37,65
595.48,54
595.59,49
595.71,41
595.82,34
595.93,26
596.04,27
596.15,20
596.26,31
596.37,23
596.48,25
596.6,22
596.71,19
596.82,21
596.93,17
597.04,28
597.15,29
597.26,16
597.37,23
597.48,27
597.59,23
597.7,20
597.81,27
597.92,32
598.03,20
598.14,25
598.25,13
598.36,19
598.47,19
598.58,17
598.69,11
598.8,17
598.91,12
599.02,9
599.13,10
599.24,16
599.35,20
599.46,17
599.57,14
599.68,18
599.79,9
599.9,14
600.01,10
600.11,9
600.22,20
600.33,17
600.44,14
600.55,22
600.66,12
600.77,12
600.87,15
600.98,17
601.09,13
601.2,14
601.31,9
601.42,8
601.52,16
601.63,15
601.74,12
601.85,5
601.95,13
602.06,12
602.17,17
602.28,21
602.38,15
602.49,12
602.6,12
602.71,14
602.81,17
602.92,11
603.03,15
603.13,15
603.24,20
603.35,15
603.45,14
603.56,20
603.67,20
603.77,14
603.88,12
603.99,18
604.09,17
604.2,13
604.3,16
604.41,14
604.52,12
604.62,12
604.73,12
604.83,12
604.94,12
605.05,15
605.15,17
605.26,15
605.36,17
605.47,14
605.57,17
605.68,20
605.78,13
605.89,12
605.99,9
606.1,14
606.2,13
606.31,9
606.41,15
606.52,18
606.62,15
606.73,13
606.83,10
606.93,15
607.04,13
607.14,14
607.25,18
607.35,9
607.45,14
607.56,8
607.66,12
607.77,7
607.87,14
607.97,17
608.08,17
608.18,12
608.28,11
608.39,15
608.49,13
608.59,14
608.7,14
608.8,10
608.9,8
609.01,13
609.11,22
609.21,16
609.31,17
609.42,15
609.52,20
609.62,17
609.72,13
609.83,18
609.93,15
610.03,22
610.13,10
610.23,14
610.34,20
610.44,23
610.54,19
610.64,16
610.74,12
610.84,20
610.95,15
611.05,13
611.15,7
611.25,9
611.35,8
611.45,11
611.55,12
611.65,11
611.75,7
611.86,9
611.96,16
612.06,13
612.16,10
612.26,13
612.36,6
612.46,14
612.56,13
612.66,12
612.76,18
612.86,8
612.96,12
613.06,6
613.16,18
613.26,12
613.36,13
613.46,13
613.56,6
613.66,12
613.76,13
613.86,7
613.96,12
614.05,15
614.15,12
614.25,16
614.35,10
614.45,8
614.55,11
614.65,14
614.75,6
614.85,9
614.94,8
615.04,13
615.14,12
615.24,10
615.34,18
615.44,11
615.53,9
615.63,17
615.73,10
615.83,9
615.93,17
616.02,13
616.12,11
616.22,13
616.32,13
616.41,10
616.51,14
616.61,11
616.7,8
616.8,14
616.9,13
617,12
617.09,12
617.19,3
617.29,6
617.38,10
617.48,12
617.58,10
617.67,11
617.77,13
617.87,16
617.96,16
618.06,8
618.15,12
618.25,13
618.35,13
618.44,19
618.54,13
618.63,10
618.73,5
618.82,11
618.92,7
619.01,12
619.11,10
619.21,11
619.3,13
619.4,12
619.49,7
619.59,13
619.68,14
619.78,9
619.87,7
619.96,5
620.06,13
620.15,19
620.25,10
620.34,11
620.44,7
620.53,14
620.62,9
620.72,9
620.81,13
620.91,12
621,7
621.09,11
621.19,12
621.28,15
621.37,16
621.47,13
621.56,11
621.65,16
621.75,14
621.84,11
621.93,15
622.03,14
622.12,13
622.21,9
622.31,10
622.4,16
622.49,5
622.58,11
622.68,11
622.77,8
622.86,9
622.95,7
623.04,9
623.14,6
623.23,15
623.32,9
623.41,11
623.5,11
623.6,14
623.69,16
623.78,15
623.87,9
623.96,18
624.05,9
624.14,16
624.23,8
624.33,3
624.42,12
624.51,7
624.6,17
624.69,12
624.78,19
624.87,12
624.96,13
625.05,8
625.14,10
625.23,11
625.32,5
625.41,13
625.5,10
625.59,14
625.68,13
625.77,19
625.86,22
625.95,4
626.04,12
626.13,6
626.22,20
626.31,30
626.4,9
626.49,5
626.58,11
626.66,10
626.75,16
626.84,14
626.93,17
627.02,14
627.11,14
627.2,17
627.29,12
627.37,10
627.46,9
627.55,14
627.64,11
627.73,15
627.81,10
627.9,12
627.99,10
628.08,12
628.17,16
628.25,12
628.34,12
628.43,12
628.52,8
628.6,9
628.69,9
628.78,16
628.86,12
628.95,11
629.04,8
629.13,9
629.21,15
629.3,13
629.39,9
629.47,11
629.56,13
629.64,13
629.73,4
629.82,14
629.9,6
629.99,14
630.08,13
630.16,13
630.25,16
630.33,15
630.42,16
630.5,11
630.59,11
630.67,9
630.76,8
630.85,16
630.93,10
631.02,9
631.1,16
631.19,16
631.27,9
631.36,9
631.44,10
631.52,12
631.61,12
631.69,9
631.78,12
631.86,12
631.95,11
632.03,13
632.11,13
632.2,12
632.28,11
632.37,14
632.45,17
632.53,15
632.62,18
632.7,10
632.78,8
632.87,13
632.95,7
633.03,13
633.12,9
633.2,10
633.28,11
633.37,8
633.45,12
633.53,5
633.61,14
633.7,14
633.78,7
633.86,7
633.94,12
634.03,13
634.11,12
634.19,19
634.27,10
634.35,9
634.44,13
634.52,10
634.6,11
634.68,12
634.76,17
634.84,10
634.92,11
635.01,11
635.09,9
635.17,12
635.25,15
635.33,12
635.41,17
635.49,13
635.57,9
635.65,7
635.73,12
635.81,15
635.89,9
635.97,15
636.05,9
636.13,9
636.21,12
636.29,8
636.37,11
636.45,11
636.53,13
636.61,9
636.69,15
636.77,11
636.85,10
636.93,12
637.01,10
637.09,12
637.17,9
637.25,12
637.33,14
637.41,13
637.48,10
637.56,14
637.64,12
637.72,9
637.8,10
637.88,10
637.95,7
638.03,10
638.11,7
638.19,12
638.27,18
638.34,10
638.42,9
638.5,6
638.58,10
638.65,6
638.73,10
638.81,16
638.89,11
638.96,14
639.04,12
639.12,12
639.2,15
639.27,10
639.35,11
639.43,12
639.5,9
639.58,10
639.66,10
639.73,8
639.81,0
639.88,11
639.96,12
640.04,16
640.11,15
640.19,11
640.26,11
640.34,9
640.41,10
640.49,4
640.57,9
640.64,10
640.72,12
640.79,11
640.87,11
640.94,13
641.02,7
641.09,9
641.17,12
641.24,9
641.32,12
641.39,12
641.46,13
641.54,7
641.61,7
641.69,13
641.76,12
641.84,12
641.91,15
641.98,12
642.06,11
642.13,16
642.2,10
642.28,15
642.35,8
642.42,9
642.5,14
642.57,13
642.64,11
642.72,19
642.79,14
642.86,15
642.94,9
643.01,8
643.08,9
643.15,10
643.23,13
643.3,9
643.37,15
643.44,9
643.52,9
643.59,12
643.66,9
643.73,13
643.8,9
643.87,8
643.95,13
644.02,9
644.09,17
644.16,10
644.23,12
644.3,10
644.37,10
644.45,9
644.52,4
644.59,12
644.66,15
644.73,10
644.8,9
644.87,13
644.94,17
645.01,3
645.08,8
645.15,12
645.22,19
645.29,12
645.36,10
661,0
661.08,2
661.15,0
661.23,3
661.3,4
661.38,2
661.45,1
661.53,6
661.6,2
661.68,5
661.75,5
661.83,6
661.9,1
661.98,4
662.05,6
662.13,4
662.21,5
662.28,0
662.36,4
662.43,1
662.51,0
662.59,9
662.66,5
662.74,2
662.82,0
662.89,6
662.97,0
663.05,1
663.12,0
663.2,5
663.28,8
663.35,4
663.43,0
663.51,6
663.59,5
663.66,7
663.74,4
663.82,4
663.9,2
663.97,3
664.05,4
664.13,4
664.21,5
664.29,0
664.36,3
664.44,8
664.52,2
664.6,12
664.68,2
664.76,0
664.83,2
664.91,4
664.99,2
665.07,2
665.15,6
665.23,0
665.31,0
665.39,4
665.47,3
665.55,0
665.63,5
665.71,0
665.79,8
665.86,0
665.94,3
666.02,4
666.1,0
666.18,7
666.26,7
666.35,2
666.43,2
666.51,1
666.59,4
666.67,9
666.75,4
666.83,1
666.91,1
666.99,2
667.07,0
667.15,0
667.23,4
667.31,5
667.4,5
667.48,8
667.56,0
667.64,0
667.72,5
667.8,0
667.89,4
667.97,6
668.05,0
668.13,4
668.21,2
668.3,9
668.38,3
668.46,0
668.54,1
668.63,5
668.71,4
668.79,0
668.87,0
668.96,0
669.04,9
669.12,4
669.21,2
669.29,1
669.37,5
669.46,4
669.54,0
669.62,0
669.71,3
669.79,8
669.87,4
669.96,5
670.04,4
670.13,2
670.21,7
670.3,2
670.38,5
670.46,0
670.55,4
670.63,6
670.72,0
670.8,6
670.89,8
670.97,1
671.06,4
671.14,1
671.23,3
671.31,3
671.4,0
671.48,6
671.57,7
671.65,2
671.74,3
671.83,0
671.91,1
672,2
672.08,8
672.17,2
672.26,6
672.34,0
672.43,3
672.51,0
672.6,2
672.69,2
672.77,3
672.86,1
672.95,0
673.04,2
673.12,8
673.21,1
673.3,4
673.38,4
673.47,6
673.56,3
673.65,7
673.73,1
673.82,4
673.91,4
674,3
674.08,3
674.17,4
674.26,7
674.35,1
674.44,0
674.53,0
674.61,5
674.7,0
674.79,5
674.88,0
674.97,1
675.06,8
675.15,2
675.23,0
675.32,7
675.41,2
675.5,0
675.59,2
675.68,3
675.77,0
675.86,4
675.95,6
676.04,3
676.13,0
676.22,4
676.31,4
676.4,5
676.49,5
676.58,4
676.67,0
676.76,4
676.85,5
676.94,5
677.03,4
677.12,3
677.21,3
677.3,0
677.39,3
677.49,3
677.58,2
677.67,4
677.76,3
677.85,1
677.94,4
678.03,3
678.13,2
678.22,8
678.31,5
678.4,1
678.49,1
678.58,0
678.68,0
678.77,0
678.86,8
678.95,5
679.05,6
679.14,9
679.23,6
679.32,2
679.42,6
679.51,0
679.6,2
679.7,6
679.79,4
679.88,1
679.98,5
680.07,5
680.16,8
680.26,0
680.35,4
680.44,0
680.54,3
680.63,4
680.72,2
680.82,3
680.91,1
681.01,4
681.1,4
681.2,3
681.29,3
681.38,2
681.48,2
681.57,6
681.67,7
681.76,6
681.86,2
681.95,2
682.05,2
682.14,4
682.24,5
682.33,3
682.43,5
682.53,3
682.62,1
682.72,0
682.81,3
682.91,0
683,7
683.1,3
683.2,1
683.29,0
683.39,0
683.49,10
683.58,0
683.68,1
683.78,0
683.87,5
683.97,0
684.07,11
684.16,6
684.26,4
684.36,2
684.45,1
684.55,0
684.65,3
684.75,6
684.84,7
684.94,3
685.04,6
685.14,4
685.23,1
685.33,4
685.43,0
685.53,3
685.63,2
685.72,11
685.82,3
685.92,7
686.02,3
686.12,6
686.22,6
686.32,6
686.41,6
686.51,6
686.61,4
686.71,1
686.81,4
686.91,4
687.01,4
687.11,6
687.21,5
687.31,0
687.41,6
687.51,3
687.61,3
687.71,5
687.81,2
687.91,3
688.01,6
688.11,6
688.21,1
688.31,1
688.41,4
688.51,3
688.61,3
688.71,3
688.81,4
688.91,5
689.01,0
689.12,3
689.22,2
689.32,6
689.42,3
689.52,5
689.62,0
689.72,0
689.83,2
689.93,6
690.03,9
690.13,8
690.23,6
690.33,1
690.44,2
690.54,6
690.64,4
690.74,3
690.85,0
690.95,3
691.05,0
691.15,0
691.26,3
691.36,1
691.46,3
691.57,0
691.67,0
691.77,2
691.88,1
691.98,2
692.08,5
692.19,0
692.29,4
692.39,2
692.5,5
692.6,7
692.71,8
692.81,0
692.91,0
693.02,0
693.12,0
693.23,0
693.33,1
693.44,4
693.54,4
693.65,3
693.75,11
693.85,8
693.96,3
694.06,2
694.17,3
694.28,4
694.38,6
694.49,3
694.59,1
694.7,1
694.8,4
694.91,2
695.01,1
695.12,6
695.23,8
695.33,6
695.44,5
695.54,2
695.65,0
695.76,2
695.86,4
695.97,3
696.08,2
696.18,5
696.29,1
696.4,6
696.5,0
696.61,8
696.72,0
696.83,0
696.93,0
697.04,3
697.15,1
697.26,5
697.36,3
697.47,6
697.58,2
697.69,0
697.79,0
697.9,0
698.01,8
698.12,1
698.23,6
698.34,6
698.44,2
698.55,8
698.66,2
698.77,4
698.88,2
698.99,5
699.1,2
699.21,0
699.32,2
699.42,0
699.53,4
699.64,6
699.75,2
699.86,2
699.97,6
700.08,4
700.19,1
700.3,4
700.41,3
700.52,1
700.63,3
700.74,2
700.85,4
700.96,2
701.07,2
701.18,7
701.29,4
701.4,10
701.52,6
701.63,0
701.74,0
701.85,8
701.96,1
702.07,4
702.18,0
702.29,0
702.4,5
702.52,2
702.63,0
702.74,3
702.85,0
702.96,0
703.07,3
703.19,5
703.3,0
703.41,2
703.52,2
703.64,0
703.75,1
703.86,8
703.97,2
704.09,1
704.2,0
704.31,0
704.42,5
704.54,6
704.65,3
704.76,0
704.88,0
704.99,0
705.1,2
705.22,5
705.33,5
705.45,1
705.56,2
705.67,0
705.79,0
705.9,7
706.01,3
706.13,0
706.24,5
706.36,4
706.47,2
706.59,3
706.7,7
706.82,6
706.93,3
707.05,4
707.16,2
707.28,1
707.39,0
707.51,0
707.62,0
707.74,2
707.85,10
707.97,6
708.08,7
708.2,2
708.31,9
708.43,1
708.55,5
708.66,3
708.78,5
708.89,7
709.01,5
709.13,3
709.24,1
709.36,3
709.48,4
709.59,9
709.71,5
709.83,7
709.94,6
710.06,7
710.18,1
710.3,4
710.41,8
710.53,2
710.65,4
710.77,4
710.88,4
711,8
711.12,4
711.24,2
711.35,5
711.47,8
711.59,0
711.71,4
711.83,3
711.94,2
712.06,7
712.18,16
712.3,7
712.42,5
712.54,4
712.66,0
712.78,3
712.89,7
713.01,4
713.13,4
713.25,3
713.37,1
713.49,2
713.61,9
713.73,1
713.85,0
713.97,0
714.09,0
714.21,6
714.33,6
714.45,4
714.57,7
714.69,1
714.81,0
714.93,0
715.05,3
715.17,1
715.29,1
715.41,6
715.53,1
715.65,4
715.78,4
715.9,0
716.02,8
716.14,4
716.26,3
716.38,0
716.5,0
716.62,0
716.75,0
716.87,6
716.99,3
717.11,3
717.23,5
717.36,6
717.48,4
717.6,7
717.72,5
717.85,1
717.97,0
718.09,1
718.21,4
718.34,4
718.46,2
718.58,6
718.7,1
718.83,0
718.95,3
719.07,4
719.2,5
719.32,5
719.44,8
719.57,0
719.69,5
719.82,7
719.94,4
720.06,0
720.19,4
720.31,5
720.44,4
720.56,5
720.68,6
720.81,4
720.93,0
721.06,0
721.18,5
721.31,5
721.43,0
721.56,8
721.68,3
721.81,3
721.93,1
722.06,0
722.18,9
722.31,4
722.43,8
722.56,1
722.68,1
722.81,2
722.94,3
723.06,1
723.19,0
723.31,4
723.44,4
723.57,1
723.69,0
723.82,0
723.95,2
724.07,9
724.2,0
724.33,2
724.45,4
724.58,9
724.71,3
724.83,8
724.96,2
725.09,5
725.21,4
725.34,5
725.47,2
725.6,8
725.72,0
725.85,0
725.98,6
726.11,1
726.24,4
726.36,0
726.49,4
726.62,0
726.75,2
726.88,2
727.01,0
727.13,3
727.26,5
727.39,6
727.52,6
727.65,2
727.78,2
727.91,1
728.04,6
728.17,4
728.29,1
728.42,0
728.55,0
728.68,4
728.81,0
728.94,6
729.07,9
729.2,0
729.33,0
729.46,0
729.59,4
729.72,4
729.85,4
729.98,5
730.11,6
730.24,4
730.37,5
730.51,0
730.64,0
730.77,0
730.9,4
731.03,0
731.16,3
731.29,9
731.42,7
731.55,3
731.69,2
731.82,0
731.95,1
732.08,9
732.21,4
732.34,4
732.48,1
732.61,0
732.74,4
732.87,7
733,7
733.14,8
733.27,5
733.4,2
733.53,7
733.67,5
733.8,6
733.93,0
734.07,1
734.2,4
734.33,0
734.47,4
734.6,3
734.73,4
734.87,1
735,8
735.13,0
735.27,2
735.4,0
735.53,0
735.67,4
735.8,5
735.94,1
736.07,0
736.2,4
736.34,3
736.47,6
736.61,5
736.74,4
736.88,6
737.01,7
737.15,9
737.28,3
737.42,0
737.55,0
737.69,0
737.82,8
737.96,3
738.09,2
738.23,5
738.36,3
738.5,3
738.64,1
738.77,4
738.91,3
739.04,10
739.18,0
739.32,7
739.45,8
739.59,0
739.72,0
739.86,4
740,0
740.13,0
740.27,5
740.41,1
740.54,2
740.68,0
740.82,6
740.96,6
741.09,1
741.23,3
741.37,0
741.51,2
741.64,5
741.78,2
741.92,0
742.06,4
742.19,6
742.33,8
742.47,5
742.61,1
742.75,2
742.89,3
743.02,2
743.16,0
743.3,8
743.44,0
743.58,0
743.72,9
743.86,1
744,2
744.13,2
744.27,9
744.41,0
744.55,3
744.69,4
744.83,0
744.97,3
745.11,0
745.25,3
745.39,4
745.53,2
745.67,0
745.81,2
745.95,0
746.09,2
746.23,0
746.37,6
746.51,0
746.65,0
746.79,3
746.93,0
747.07,6
747.22,0
747.36,1
747.5,4
747.64,0
747.78,3
747.92,7
748.06,0
748.2,5
748.35,3
748.49,0
748.63,1
748.77,1
748.91,0
749.05,0
749.2,2
749.34,9
749.48,4
749.62,1
749.77,1
749.91,0
750.05,3
750.19,3
750.34,4
750.48,0
750.62,0
750.76,5
750.91,1
751.05,2
751.19,0
751.34,0
751.48,0
751.62,1
751.77,6
751.91,1
752.06,2
752.2,7
752.34,0
752.49,5
752.63,6
752.78,5
752.92,0
753.06,7
753.21,4
753.35,0
753.5,3
753.64,0
753.79,2
753.93,2
754.08,4
754.22,7
754.37,5
754.51,1
754.66,5
754.8,2
754.95,6
755.09,3
755.24,0
755.38,3
755.53,1
755.68,4
755.82,3
755.97,8
756.11,6
756.26,2
756.41,1
756.55,0
756.7,0
756.85,1
756.99,0
757.14,9
757.29,5
757.43,0
757.58,0
757.73,0
757.87,12
758.02,0
758.17,2
758.31,0
758.46,1
758.61,0
758.76,0
758.9,5
759.05,2
759.2,3
759.35,0
759.5,2
759.64,3
759.79,3
759.94,5
760.09,4
760.24,3
760.39,4
760.53,4
760.68,3
760.83,0
760.98,3
761.13,9
761.28,3
761.43,8
761.58,4
761.73,3
761.87,1
762.02,7
762.17,3
762.32,2
762.47,5
762.62,8
762.77,3
762.92,0
763.07,6
763.22,0
763.37,0
763.52,3
763.67,2
763.82,7
763.97,14
764.12,7
764.27,0
764.43,1
764.58,2
764.73,4
764.88,1
765.03,17
765.18,1
765.33,3
765.48,4
765.63,0
765.79,5
765.94,0
766.09,0
766.24,3
766.39,5
766.54,0
766.7,0
766.85,0
767,0
767.15,0
767.3,1
767.46,8
767.61,2
767.76,1
767.91,0
768.07,5
768.22,4
768.37,7
768.53,5
768.68,1
768.83,4
768.98,7
769.14,3
769.29,3
769.44,6
769.6,5
769.75,2
769.91,0
770.06,1
770.21,2
770.37,3
770.52,0
770.68,8
770.83,7
770.98,5
771.14,4
771.29,1
771.45,6
771.6,2
771.76,2
771.91,4
772.07,0
772.22,5
772.38,4
772.53,0
772.69,0
772.84,11
773,5
773.15,0
773.31,6
773.46,0
773.62,8
773.77,1
773.93,2
774.09,4
774.24,1
774.4,2
774.55,5
774.71,1
774.87,4
775.02,0
775.18,5
775.34,0
775.49,4
775.65,0
775.81,0
775.96,5
776.12,4
776.28,0
776.44,0
776.59,3
776.75,2
776.91,4
777.07,7
777.22,2
777.38,2
777.54,0
777.7,8
777.85,5
778.01,8
778.17,0
778.33,0
778.49,4
778.64,4
778.8,2
778.96,5
779.12,2
779.28,2
779.44,1
779.6,6
779.76,3
779.91,2
780.07,1
780.23,3
780.39,0
780.55,1
780.71,4
780.87,3
781.03,3
781.19,4
781.35,0
781.51,5
781.67,6
781.83,6
781.99,6
782.15,0
782.31,0
782.47,5
782.63,1
782.79,0
782.95,3
783.11,3
783.27,7
783.43,4
783.59,0
783.76,1
783.92,8
784.08,5
784.24,3
784.4,0
784.56,0
784.72,1
784.88,6
785.05,2
785.21,0
785.37,0
785.53,8
785.69,3
785.86,3
786.02,6
786.18,6
786.34,5
786.5,3
786.67,5
786.83,2
786.99,4
787.16,0
787.32,7
787.48,4
787.64,0
787.81,4
787.97,0
788.13,2
788.3,3
788.46,3
788.62,5
788.79,1
788.95,1
789.11,0
789.28,0
789.44,3
789.61,0
789.77,8
789.93,5
790.1,7
790.26,3
790.43,5
790.59,3
790.76,5
790.92,2
791.09,3
791.25,5
791.42,3
791.58,11
791.75,5
791.91,6
792.08,2
792.24,2
792.41,0
792.57,6
792.74,0
792.9,0
793.07,2
793.23,3
793.4,0
793.57,4
793.73,0
793.9,0
794.06,6
794.23,0
794.4,1
794.56,3
794.73,12
794.9,5
795.06,0
795.23,7
795.4,4
795.56,2
795.73,3
795.9,1
796.07,0
796.23,0
796.4,2
796.57,2
796.74,12
796.9,4
797.07,4
797.24,5
797.41,2
797.57,3
797.74,2
797.91,2
798.08,0
798.25,0
798.42,1
798.58,0
798.75,6
798.92,0
799.09,1
799.26,0
799.43,0
799.6,3
799.77,0
799.93,2
800.1,3
800.27,3
800.44,1
800.61,3
800.78,0
800.95,8
801.12,0
801.29,3
801.46,2
801.63,0
801.8,2
801.97,4
802.14,0
802.31,0
802.48,0
802.65,2
802.82,6
802.99,5
803.16,2
803.33,5
803.51,6
803.68,4
803.85,1
804.02,8
804.19,5
804.36,2
804.53,2
804.7,2
804.88,0
805.05,4
805.22,4
805.39,0
805.56,1
805.73,2
805.91,0
806.08,5
806.25,0
806.42,9
806.6,5
806.77,4
806.94,4
807.11,4
807.29,6
807.46,2
807.63,0
807.8,5
807.98,3
808.15,5
808.32,3
808.5,0
808.67,0
808.84,6
809.02,3
809.19,0
809.36,3
809.54,4
809.71,0
809.89,0
810.06,6
810.23,1
810.41,6
810.58,3
810.76,0
810.93,2
811.11,7
811.28,5
811.45,4
811.63,0
811.8,4
811.98,5
812.15,1
812.33,5
812.5,3
812.68,6
812.86,3
813.03,7
813.21,1
813.38,1
813.56,2
813.73,5
813.91,0
814.08,4
814.26,2
814.44,0
814.61,1
814.79,0
814.97,8
815.14,5
815.32,2
815.5,0
815.67,1
815.85,5
816.03,1
816.2,2
816.38,0
816.56,2
816.73,6
816.91,6
817.09,5
817.27,0
817.44,3
817.62,6
817.8,2
817.98,0
818.15,3
818.33,2
818.51,3
818.69,0
818.87,0
819.04,1
819.22,0
819.4,0
819.58,10
819.76,8
819.94,0
820.12,1
820.29,5
820.47,8
820.65,0
820.83,7
821.01,0
821.19,2
821.37,4
821.55,3
821.73,4
821.91,4
822.09,0
822.27,0
822.45,0
822.63,3
822.81,5
822.99,3
823.17,1
823.35,5
823.53,9
823.71,0
823.89,0
824.07,3
824.25,0
824.43,2
824.61,0
824.79,5
824.97,0
825.15,2
825.34,0
825.52,0
825.7,5
825.88,1
826.06,6
826.24,0
826.42,4
826.61,5
826.79,8
826.97,1
827.15,0
827.33,0
827.52,0
827.7,0
827.88,0
828.06,5
828.25,2
828.43,1
828.61,1
828.79,6
828.98,2
829.16,0
829.34,0
829.52,2
829.71,7
829.89,7
830.07,1
830.26,4
830.44,9
830.62,1
830.81,0
830.99,1
831.18,5
831.36,0
831.54,0
831.73,0
831.91,6
832.1,0
832.28,2
832.46,0
832.65,0
832.83,5
833.02,6
833.2,4
833.39,3
833.57,2
833.76,3
833.94,1
834.13,2
834.31,1
834.5,0
834.68,2
834.87,1
835.06,0
835.24,3
835.43,5
835.61,0
835.8,4
835.98,3
836.17,6
836.36,9
836.54,0
836.73,3
836.92,2
837.1,2
837.29,6
837.47,6
837.66,5
837.85,5
838.04,2
838.22,1
838.41,5
838.6,5
838.78,4
838.97,5
839.16,1
839.35,1
839.53,1
839.72,8
839.91,2
840.1,7
840.28,0
840.47,6
840.66,5
840.85,2
841.04,4
841.22,5
841.41,3
841.6,7
841.79,6
841.98,2
842.17,5
842.36,2
842.55,6
842.73,0
842.92,1
843.11,8
843.3,7
843.49,6
843.68,0
843.87,0
844.06,2
844.25,14
844.44,3
844.63,7
844.82,5
845.01,6
845.2,0
845.39,2
845.58,4
845.77,0
845.96,3
846.15,1
846.34,6
846.53,4
846.72,6
846.91,2
847.1,1
847.29,0
847.48,2
847.68,7
847.87,3
848.06,0
848.25,3
848.44,5
848.63,7
848.82,2
849.02,0
849.21,7
849.4,3
849.59,1
849.78,0
849.98,0
850.17,1
850.36,2
850.55,0
850.74,0
850.94,6
851.13,5
851.32,1
851.52,6
851.71,5
851.9,0
852.09,1
852.29,0
852.48,8
852.67,3
852.87,4
853.06,7
853.25,0
853.45,4
853.64,2
853.84,0
854.03,0
854.22,1
854.42,0
854.61,2
854.81,0
855,2
855.19,5
855.39,4
855.58,5
855.78,5
855.97,0
856.17,9
856.36,10
856.56,5
856.75,4
856.95,0
857.14,0
857.34,1
857.53,9
857.73,1
857.92,4
858.12,0
858.31,1
858.51,4
858.71,1
858.9,1
859.1,1
859.29,0
859.49,9
859.69,8
859.88,4
860.08,2
860.28,0
860.47,0
860.67,0
860.87,4
861.06,4
861.26,2
861.46,0
861.65,2
861.85,0
862.05,1
862.25,5
862.44,2
862.64,0
862.84,4
863.04,0
863.23,0
863.43,0
863.63,0
863.83,0
864.02,0
864.22,0
864.42,0
864.62,0
864.82,1
865.02,0
865.22,4
865.41,8
865.61,4
865.81,3
866.01,2
866.21,3
866.41,12
866.61,5
866.81,4
867.01,4
867.21,0
867.4,5
867.6,0
867.8,6
868,1
868.2,7
868.4,5
868.6,0
868.8,3
869,0
869.2,3
869.4,2
869.6,1
869.81,2
870.01,0
870.21,7
870.41,2
870.61,2
870.81,4
871.01,6
871.21,5
871.41,4
871.61,0
871.81,2
872.02,2
872.22,3
872.42,0
872.62,0
872.82,0
873.02,5
873.23,3
873.43,0
873.63,7
873.83,2
874.03,6
874.24,2
874.44,1
874.64,4
874.84,3
875.05,5
875.25,4
875.45,0
875.66,3
875.86,1
876.06,0
876.26,3
876.47,0
876.67,4
876.87,1
877.08,2
877.28,3
877.49,0
877.69,4
877.89,0
878.1,0
878.3,0
878.5,0
878.71,7
878.91,1
879.12,2
879.32,1
879.53,5
879.73,2
879.94,5
880.14,7
880.34,0
880.55,3
880.75,8
880.96,0
881.16,7
881.37,4
881.58,2
881.78,0
881.99,4
882.19,0
882.4,3
882.6,0
882.81,1
883.01,2
883.22,0
883.43,3
883.63,0
883.84,4
884.05,0
884.25,0
884.46,0
884.66,6
884.87,0
885.08,2
885.28,2
885.49,4
885.7,1
885.91,7
886.11,3
886.32,8
886.53,0
886.73,3
886.94,2
887.15,6
887.36,5
887.56,9
887.77,3
887.98,0
888.19,2
888.4,3
888.6,0
888.81,1
889.02,1
889.23,8
889.44,4
889.65,6
889.85,5
890.06,2
890.27,0
890.48,2
890.69,1
890.9,0
891.11,0
891.32,3
891.53,0
891.74,4
891.95,0
892.16,1
892.36,2
892.57,0
892.78,0
892.99,0
893.2,4
893.41,1
893.62,2
893.83,2
894.04,0
894.26,4
894.47,1
894.68,4
894.89,0
895.1,1
895.31,12
895.52,1
895.73,0
895.94,6
896.15,0
896.36,8
896.57,7
896.79,0
897,1
897.21,0
897.42,0
897.63,2
897.84,0
898.06,2
898.27,1
898.48,4
898.69,0
898.9,0
899.12,5
899.33,3
899.54,0
899.75,9
899.97,0
900.18,0
900.39,0
900.6,4
900.82,0
901.03,4
901.24,3
901.46,4
901.67,0
901.88,4
902.1,12
902.31,5
902.52,1
902.74,0
902.95,3
903.16,4
903.38,1
903.59,6
903.81,7
904.02,2
904.24,1
904.45,0
904.66,4
904.88,1
905.09,5
905.31,2
905.52,9
905.74,0
905.95,0
906.17,5
906.38,2
906.6,3
906.81,2
907.03,3
907.24,0
907.46,3
907.67,2
907.89,5
908.11,0
908.32,4
908.54,0
908.75,5
908.97,0
909.19,7
909.4,4
909.62,1
909.84,8
910.05,1
910.27,9
910.48,15
910.7,8
910.92,9
911.14,0
911.35,2
911.57,7
911.79,8
912,0
912.22,4
912.44,6
912.66,5
912.87,4
913.09,5
913.31,6
913.53,1
913.74,0
913.96,4
914.18,0
914.4,0
914.62,0
914.84,0
915.05,5
915.27,2
915.49,0
915.71,8
915.93,0
916.15,4
916.37,6
916.58,8
916.8,3
917.02,3
917.24,2
917.46,9
917.68,2
917.9,7
918.12,2
918.34,3
918.56,1
918.78,0
919,4
919.22,3
919.44,8
919.66,2
919.88,3
920.1,0
920.32,2
920.54,0
920.76,1
920.98,2
921.2,0
921.42,6
921.64,7
921.87,9
922.09,2
922.31,0
922.53,2
922.75,6
922.97,3
923.19,1
923.41,0
923.64,1
923.86,5
924.08,9
924.3,0
924.52,0
924.75,1
924.97,0
925.19,1
925.41,4
925.63,0
925.86,0
926.08,0
926.3,7
926.53,1
926.75,2
926.97,0
927.19,1
927.42,3
927.64,3
927.86,1
928.09,0
928.31,3
928.53,0
928.76,2
928.98,4
929.2,0
929.43,2
929.65,2
929.88,0
930.1,0
930.32,3
930.55,0
930.77,3
931,0
931.22,0
931.45,4
931.67,0
931.9,6
932.12,0
932.34,0
932.57,4
932.79,3
933.02,4
933.25,0
933.47,5
933.7,5
933.92,0
934.15,0
934.37,1
934.6,2
934.82,2
935.05,0
935.28,6
935.5,0
935.73,2
935.95,4
936.18,5
936.41,8
936.63,7
936.86,7
937.09,9
937.31,4
937.54,0
937.77,3
937.99,0
938.22,6
938.45,5
938.68,0
938.9,0
939.13,5
939.36,3
939.58,4
939.81,4
940.04,3
940.27,4
940.5,4
940.72,0
940.95,9
941.18,5
941.41,2
941.64,1
941.86,0
942.09,3
942.32,0
942.55,5
942.78,6
943.01,2
943.24,1
943.47,3
943.69,0
943.92,1
944.15,6
944.38,7
944.61,1
944.84,5
945.07,9
945.3,0
945.53,6
945.76,2
945.99,4
946.22,0
946.45,3
946.68,0
946.91,2
947.14,2
947.37,3
947.6,0
947.83,3
948.06,2
948.29,4
948.52,0
948.75,0
948.98,0
949.22,3
949.45,0
949.68,0
949.91,6
950.14,2
950.37,1
950.6,2
950.84,0
951.07,3
951.3,4
951.53,8
951.76,3
951.99,2
952.23,2
952.46,0
952.69,6
952.92,0
953.16,4
953.39,8
953.62,2
953.85,9
954.09,0
954.32,3
954.55,0
954.79,1
955.02,0
955.25,5
955.48,0
955.72,0
955.95,0
956.18,6
956.42,0
956.65,6
956.89,4
957.12,2
957.35,0
957.59,7
957.82,3
958.06,5
958.29,1
958.52,3
958.76,4
958.99,5
959.23,0
959.46,2
959.7,7
959.93,4
960.17,5
960.4,0
960.64,4
960.87,0
961.11,5
961.34,3
961.58,0
961.81,3
962.05,6
962.29,0
962.52,3
962.76,1
962.99,1
963.23,0
963.46,3
963.7,0
963.94,4
964.17,5
964.41,5
964.65,0
964.88,4
965.12,0
965.36,1
965.59,0
965.83,2
966.07,0
966.3,5
966.54,1
966.78,0
967.02,0
967.25,6
967.49,3
967.73,0
967.97,5
968.2,3
968.44,4
968.68,1
968.92,0
969.16,0
969.39,0
969.63,4
969.87,4
970.11,4
970.35,2
970.59,7
970.82,5
971.06,10
971.3,4
971.54,3
971.78,7
972.02,1
972.26,0
972.5,4
972.74,2
972.98,5
973.22,5
973.45,4
973.69,6
973.93,0
974.17,1
974.41,7
974.65,1
974.89,8
975.13,6
975.37,0
975.61,6
975.85,2
976.1,0
976.34,0
976.58,0
976.82,1
977.06,1
977.3,0
977.54,3
977.78,4
978.02,2
978.26,2
978.5,0
978.75,1
978.99,0
979.23,6
979.47,3
979.71,2
979.95,2
980.2,7
980.44,5
980.68,0
980.92,3
981.16,3
981.41,3
981.65,9
981.89,0
982.13,12
982.38,3
982.62,5
982.86,5
983.11,0
983.35,0
983.59,3
983.83,3
984.08,2
984.32,0
984.56,3
984.81,4
985.05,0
985.29,0
985.54,0
985.78,2
986.03,5
986.27,6
986.51,3
986.76,5
987,1
987.25,4
987.49,2